# Huble Space Telescope Throughput
# By 03-28-2022
# https://www.stsci.edu/hst/instrumentation/wfc3/documentation/grism-resources/wfc3-g141-calibrations
# With modification: Throughput = sensitivity * unit('erg cm-2') * photon_energy / area
# Wavelength(nm) Throughput(0-1)
995.00 0.00000
995.10 0.00000
995.20 0.00000
995.30 0.00125
995.40 0.00126
995.50 0.00127
995.60 0.00128
995.70 0.00129
995.80 0.00130
995.90 0.00131
996.00 0.00132
996.10 0.00133
996.20 0.00134
996.30 0.00135
996.40 0.00136
996.50 0.00136
996.60 0.00137
996.70 0.00138
996.80 0.00139
996.90 0.00140
997.00 0.00141
997.10 0.00142
997.20 0.00143
997.30 0.00144
997.40 0.00145
997.50 0.00146
997.60 0.00147
997.70 0.00148
997.80 0.00149
997.90 0.00150
998.00 0.00151
998.10 0.00152
998.20 0.00153
998.30 0.00154
998.40 0.00155
998.50 0.00156
998.60 0.00157
998.70 0.00158
998.80 0.00159
998.90 0.00160
999.00 0.00161
999.10 0.00162
999.20 0.00163
999.30 0.00164
999.40 0.00165
999.50 0.00166
999.60 0.00167
999.70 0.00168
999.80 0.00170
999.90 0.00171
1000.00 0.00172
1000.10 0.00173
1000.20 0.00174
1000.30 0.00175
1000.40 0.00176
1000.50 0.00177
1000.60 0.00178
1000.70 0.00179
1000.80 0.00180
1000.90 0.00181
1001.00 0.00182
1001.10 0.00182
1001.20 0.00183
1001.30 0.00184
1001.40 0.00185
1001.50 0.00186
1001.60 0.00187
1001.70 0.00187
1001.80 0.00188
1001.90 0.00189
1002.00 0.00190
1002.10 0.00191
1002.20 0.00191
1002.30 0.00192
1002.40 0.00193
1002.50 0.00194
1002.60 0.00194
1002.70 0.00195
1002.80 0.00196
1002.90 0.00197
1003.00 0.00197
1003.10 0.00198
1003.20 0.00199
1003.30 0.00200
1003.40 0.00200
1003.50 0.00201
1003.60 0.00202
1003.70 0.00202
1003.80 0.00203
1003.90 0.00204
1004.00 0.00204
1004.10 0.00205
1004.20 0.00206
1004.30 0.00206
1004.40 0.00207
1004.50 0.00208
1004.60 0.00208
1004.70 0.00209
1004.80 0.00210
1004.90 0.00210
1005.00 0.00211
1005.10 0.00212
1005.20 0.00212
1005.30 0.00213
1005.40 0.00213
1005.50 0.00214
1005.60 0.00214
1005.70 0.00215
1005.80 0.00215
1005.90 0.00216
1006.00 0.00216
1006.10 0.00217
1006.20 0.00217
1006.30 0.00218
1006.40 0.00218
1006.50 0.00219
1006.60 0.00219
1006.70 0.00220
1006.80 0.00220
1006.90 0.00220
1007.00 0.00221
1007.10 0.00221
1007.20 0.00222
1007.30 0.00222
1007.40 0.00222
1007.50 0.00223
1007.60 0.00223
1007.70 0.00223
1007.80 0.00224
1007.90 0.00224
1008.00 0.00224
1008.10 0.00225
1008.20 0.00225
1008.30 0.00225
1008.40 0.00226
1008.50 0.00226
1008.60 0.00226
1008.70 0.00227
1008.80 0.00227
1008.90 0.00227
1009.00 0.00227
1009.10 0.00228
1009.20 0.00228
1009.30 0.00228
1009.40 0.00228
1009.50 0.00228
1009.60 0.00229
1009.70 0.00229
1009.80 0.00229
1009.90 0.00229
1010.00 0.00229
1010.10 0.00230
1010.20 0.00230
1010.30 0.00230
1010.40 0.00230
1010.50 0.00231
1010.60 0.00231
1010.70 0.00231
1010.80 0.00231
1010.90 0.00232
1011.00 0.00232
1011.10 0.00232
1011.20 0.00232
1011.30 0.00232
1011.40 0.00233
1011.50 0.00233
1011.60 0.00233
1011.70 0.00233
1011.80 0.00234
1011.90 0.00234
1012.00 0.00234
1012.10 0.00234
1012.20 0.00234
1012.30 0.00235
1012.40 0.00235
1012.50 0.00235
1012.60 0.00235
1012.70 0.00235
1012.80 0.00235
1012.90 0.00236
1013.00 0.00236
1013.10 0.00236
1013.20 0.00236
1013.30 0.00236
1013.40 0.00236
1013.50 0.00237
1013.60 0.00237
1013.70 0.00237
1013.80 0.00237
1013.90 0.00237
1014.00 0.00237
1014.10 0.00237
1014.20 0.00237
1014.30 0.00238
1014.40 0.00238
1014.50 0.00238
1014.60 0.00238
1014.70 0.00238
1014.80 0.00239
1014.90 0.00239
1015.00 0.00240
1015.10 0.00240
1015.20 0.00241
1015.30 0.00241
1015.40 0.00242
1015.50 0.00242
1015.60 0.00243
1015.70 0.00243
1015.80 0.00244
1015.90 0.00244
1016.00 0.00245
1016.10 0.00245
1016.20 0.00246
1016.30 0.00247
1016.40 0.00247
1016.50 0.00248
1016.60 0.00248
1016.70 0.00249
1016.80 0.00250
1016.90 0.00250
1017.00 0.00251
1017.10 0.00252
1017.20 0.00253
1017.30 0.00253
1017.40 0.00254
1017.50 0.00255
1017.60 0.00255
1017.70 0.00256
1017.80 0.00257
1017.90 0.00258
1018.00 0.00258
1018.10 0.00259
1018.20 0.00260
1018.30 0.00261
1018.40 0.00262
1018.50 0.00263
1018.60 0.00263
1018.70 0.00264
1018.80 0.00265
1018.90 0.00266
1019.00 0.00267
1019.10 0.00268
1019.20 0.00269
1019.30 0.00270
1019.40 0.00271
1019.50 0.00272
1019.60 0.00273
1019.70 0.00275
1019.80 0.00276
1019.90 0.00277
1020.00 0.00279
1020.10 0.00280
1020.20 0.00282
1020.30 0.00283
1020.40 0.00285
1020.50 0.00286
1020.60 0.00288
1020.70 0.00289
1020.80 0.00291
1020.90 0.00293
1021.00 0.00294
1021.10 0.00296
1021.20 0.00298
1021.30 0.00299
1021.40 0.00301
1021.50 0.00303
1021.60 0.00304
1021.70 0.00306
1021.80 0.00308
1021.90 0.00310
1022.00 0.00312
1022.10 0.00314
1022.20 0.00316
1022.30 0.00318
1022.40 0.00320
1022.50 0.00322
1022.60 0.00324
1022.70 0.00326
1022.80 0.00328
1022.90 0.00330
1023.00 0.00332
1023.10 0.00334
1023.20 0.00336
1023.30 0.00338
1023.40 0.00341
1023.50 0.00343
1023.60 0.00345
1023.70 0.00347
1023.80 0.00350
1023.90 0.00352
1024.00 0.00354
1024.10 0.00357
1024.20 0.00359
1024.30 0.00361
1024.40 0.00364
1024.50 0.00366
1024.60 0.00368
1024.70 0.00371
1024.80 0.00373
1024.90 0.00375
1025.00 0.00378
1025.10 0.00380
1025.20 0.00383
1025.30 0.00385
1025.40 0.00388
1025.50 0.00390
1025.60 0.00393
1025.70 0.00396
1025.80 0.00398
1025.90 0.00401
1026.00 0.00403
1026.10 0.00406
1026.20 0.00409
1026.30 0.00411
1026.40 0.00414
1026.50 0.00417
1026.60 0.00420
1026.70 0.00422
1026.80 0.00425
1026.90 0.00428
1027.00 0.00431
1027.10 0.00434
1027.20 0.00437
1027.30 0.00440
1027.40 0.00442
1027.50 0.00445
1027.60 0.00448
1027.70 0.00451
1027.80 0.00454
1027.90 0.00457
1028.00 0.00460
1028.10 0.00463
1028.20 0.00466
1028.30 0.00469
1028.40 0.00473
1028.50 0.00476
1028.60 0.00479
1028.70 0.00482
1028.80 0.00484
1028.90 0.00487
1029.00 0.00490
1029.10 0.00493
1029.20 0.00496
1029.30 0.00498
1029.40 0.00501
1029.50 0.00504
1029.60 0.00507
1029.70 0.00510
1029.80 0.00512
1029.90 0.00515
1030.00 0.00518
1030.10 0.00521
1030.20 0.00524
1030.30 0.00526
1030.40 0.00529
1030.50 0.00532
1030.60 0.00535
1030.70 0.00538
1030.80 0.00541
1030.90 0.00543
1031.00 0.00546
1031.10 0.00549
1031.20 0.00552
1031.30 0.00555
1031.40 0.00558
1031.50 0.00561
1031.60 0.00563
1031.70 0.00566
1031.80 0.00569
1031.90 0.00572
1032.00 0.00575
1032.10 0.00578
1032.20 0.00581
1032.30 0.00584
1032.40 0.00586
1032.50 0.00589
1032.60 0.00592
1032.70 0.00595
1032.80 0.00598
1032.90 0.00601
1033.00 0.00604
1033.10 0.00607
1033.20 0.00610
1033.30 0.00612
1033.40 0.00615
1033.50 0.00618
1033.60 0.00621
1033.70 0.00623
1033.80 0.00626
1033.90 0.00629
1034.00 0.00631
1034.10 0.00634
1034.20 0.00637
1034.30 0.00639
1034.40 0.00642
1034.50 0.00645
1034.60 0.00647
1034.70 0.00650
1034.80 0.00653
1034.90 0.00655
1035.00 0.00658
1035.10 0.00661
1035.20 0.00663
1035.30 0.00666
1035.40 0.00669
1035.50 0.00671
1035.60 0.00674
1035.70 0.00676
1035.80 0.00679
1035.90 0.00682
1036.00 0.00684
1036.10 0.00687
1036.20 0.00689
1036.30 0.00692
1036.40 0.00695
1036.50 0.00697
1036.60 0.00700
1036.70 0.00702
1036.80 0.00705
1036.90 0.00707
1037.00 0.00710
1037.10 0.00712
1037.20 0.00715
1037.30 0.00718
1037.40 0.00720
1037.50 0.00723
1037.60 0.00725
1037.70 0.00728
1037.80 0.00730
1037.90 0.00733
1038.00 0.00736
1038.10 0.00739
1038.20 0.00742
1038.30 0.00745
1038.40 0.00748
1038.50 0.00751
1038.60 0.00754
1038.70 0.00757
1038.80 0.00760
1038.90 0.00763
1039.00 0.00766
1039.10 0.00769
1039.20 0.00772
1039.30 0.00776
1039.40 0.00779
1039.50 0.00782
1039.60 0.00785
1039.70 0.00788
1039.80 0.00792
1039.90 0.00795
1040.00 0.00798
1040.10 0.00801
1040.20 0.00805
1040.30 0.00808
1040.40 0.00811
1040.50 0.00815
1040.60 0.00818
1040.70 0.00821
1040.80 0.00825
1040.90 0.00828
1041.00 0.00831
1041.10 0.00835
1041.20 0.00838
1041.30 0.00842
1041.40 0.00845
1041.50 0.00849
1041.60 0.00852
1041.70 0.00856
1041.80 0.00859
1041.90 0.00863
1042.00 0.00866
1042.10 0.00870
1042.20 0.00873
1042.30 0.00877
1042.40 0.00881
1042.50 0.00884
1042.60 0.00889
1042.70 0.00894
1042.80 0.00899
1042.90 0.00904
1043.00 0.00909
1043.10 0.00914
1043.20 0.00920
1043.30 0.00925
1043.40 0.00931
1043.50 0.00936
1043.60 0.00942
1043.70 0.00947
1043.80 0.00953
1043.90 0.00959
1044.00 0.00965
1044.10 0.00971
1044.20 0.00977
1044.30 0.00983
1044.40 0.00989
1044.50 0.00996
1044.60 0.01002
1044.70 0.01008
1044.80 0.01015
1044.90 0.01021
1045.00 0.01028
1045.10 0.01035
1045.20 0.01041
1045.30 0.01048
1045.40 0.01055
1045.50 0.01062
1045.60 0.01069
1045.70 0.01076
1045.80 0.01083
1045.90 0.01091
1046.00 0.01098
1046.10 0.01105
1046.20 0.01113
1046.30 0.01120
1046.40 0.01128
1046.50 0.01136
1046.60 0.01143
1046.70 0.01151
1046.80 0.01159
1046.90 0.01167
1047.00 0.01175
1047.10 0.01183
1047.20 0.01191
1047.30 0.01200
1047.40 0.01208
1047.50 0.01217
1047.60 0.01226
1047.70 0.01235
1047.80 0.01244
1047.90 0.01253
1048.00 0.01262
1048.10 0.01271
1048.20 0.01281
1048.30 0.01290
1048.40 0.01300
1048.50 0.01309
1048.60 0.01319
1048.70 0.01329
1048.80 0.01339
1048.90 0.01348
1049.00 0.01358
1049.10 0.01369
1049.20 0.01379
1049.30 0.01389
1049.40 0.01399
1049.50 0.01410
1049.60 0.01420
1049.70 0.01431
1049.80 0.01442
1049.90 0.01452
1050.00 0.01463
1050.10 0.01474
1050.20 0.01485
1050.30 0.01496
1050.40 0.01507
1050.50 0.01519
1050.60 0.01530
1050.70 0.01541
1050.80 0.01553
1050.90 0.01565
1051.00 0.01576
1051.10 0.01588
1051.20 0.01600
1051.30 0.01612
1051.40 0.01624
1051.50 0.01636
1051.60 0.01648
1051.70 0.01660
1051.80 0.01673
1051.90 0.01685
1052.00 0.01696
1052.10 0.01708
1052.20 0.01719
1052.30 0.01731
1052.40 0.01742
1052.50 0.01754
1052.60 0.01765
1052.70 0.01777
1052.80 0.01789
1052.90 0.01801
1053.00 0.01813
1053.10 0.01824
1053.20 0.01836
1053.30 0.01848
1053.40 0.01860
1053.50 0.01872
1053.60 0.01884
1053.70 0.01896
1053.80 0.01909
1053.90 0.01921
1054.00 0.01933
1054.10 0.01945
1054.20 0.01958
1054.30 0.01970
1054.40 0.01982
1054.50 0.01995
1054.60 0.02007
1054.70 0.02020
1054.80 0.02032
1054.90 0.02045
1055.00 0.02057
1055.10 0.02070
1055.20 0.02083
1055.30 0.02095
1055.40 0.02108
1055.50 0.02121
1055.60 0.02134
1055.70 0.02147
1055.80 0.02160
1055.90 0.02173
1056.00 0.02186
1056.10 0.02199
1056.20 0.02212
1056.30 0.02225
1056.40 0.02238
1056.50 0.02251
1056.60 0.02263
1056.70 0.02276
1056.80 0.02288
1056.90 0.02301
1057.00 0.02313
1057.10 0.02325
1057.20 0.02338
1057.30 0.02350
1057.40 0.02362
1057.50 0.02375
1057.60 0.02387
1057.70 0.02399
1057.80 0.02412
1057.90 0.02424
1058.00 0.02437
1058.10 0.02449
1058.20 0.02461
1058.30 0.02474
1058.40 0.02486
1058.50 0.02499
1058.60 0.02511
1058.70 0.02523
1058.80 0.02536
1058.90 0.02548
1059.00 0.02561
1059.10 0.02573
1059.20 0.02585
1059.30 0.02598
1059.40 0.02610
1059.50 0.02623
1059.60 0.02635
1059.70 0.02647
1059.80 0.02660
1059.90 0.02672
1060.00 0.02685
1060.10 0.02697
1060.20 0.02710
1060.30 0.02722
1060.40 0.02734
1060.50 0.02747
1060.60 0.02759
1060.70 0.02772
1060.80 0.02784
1060.90 0.02797
1061.00 0.02809
1061.10 0.02822
1061.20 0.02834
1061.30 0.02848
1061.40 0.02861
1061.50 0.02874
1061.60 0.02888
1061.70 0.02901
1061.80 0.02914
1061.90 0.02928
1062.00 0.02941
1062.10 0.02955
1062.20 0.02968
1062.30 0.02982
1062.40 0.02996
1062.50 0.03009
1062.60 0.03023
1062.70 0.03037
1062.80 0.03050
1062.90 0.03064
1063.00 0.03078
1063.10 0.03092
1063.20 0.03106
1063.30 0.03120
1063.40 0.03134
1063.50 0.03148
1063.60 0.03162
1063.70 0.03176
1063.80 0.03190
1063.90 0.03204
1064.00 0.03218
1064.10 0.03233
1064.20 0.03247
1064.30 0.03261
1064.40 0.03275
1064.50 0.03290
1064.60 0.03304
1064.70 0.03319
1064.80 0.03333
1064.90 0.03347
1065.00 0.03362
1065.10 0.03377
1065.20 0.03391
1065.30 0.03406
1065.40 0.03420
1065.50 0.03435
1065.60 0.03450
1065.70 0.03465
1065.80 0.03479
1065.90 0.03498
1066.00 0.03518
1066.10 0.03537
1066.20 0.03557
1066.30 0.03577
1066.40 0.03597
1066.50 0.03617
1066.60 0.03638
1066.70 0.03658
1066.80 0.03679
1066.90 0.03700
1067.00 0.03722
1067.10 0.03743
1067.20 0.03765
1067.30 0.03787
1067.40 0.03809
1067.50 0.03832
1067.60 0.03854
1067.70 0.03877
1067.80 0.03900
1067.90 0.03924
1068.00 0.03947
1068.10 0.03971
1068.20 0.03995
1068.30 0.04019
1068.40 0.04043
1068.50 0.04067
1068.60 0.04092
1068.70 0.04117
1068.80 0.04142
1068.90 0.04168
1069.00 0.04193
1069.10 0.04219
1069.20 0.04245
1069.30 0.04271
1069.40 0.04297
1069.50 0.04324
1069.60 0.04351
1069.70 0.04378
1069.80 0.04405
1069.90 0.04433
1070.00 0.04460
1070.10 0.04488
1070.20 0.04516
1070.30 0.04544
1070.40 0.04573
1070.50 0.04604
1070.60 0.04638
1070.70 0.04672
1070.80 0.04707
1070.90 0.04742
1071.00 0.04777
1071.10 0.04813
1071.20 0.04849
1071.30 0.04886
1071.40 0.04923
1071.50 0.04960
1071.60 0.04998
1071.70 0.05036
1071.80 0.05075
1071.90 0.05114
1072.00 0.05154
1072.10 0.05194
1072.20 0.05234
1072.30 0.05275
1072.40 0.05316
1072.50 0.05357
1072.60 0.05399
1072.70 0.05442
1072.80 0.05485
1072.90 0.05528
1073.00 0.05571
1073.10 0.05615
1073.20 0.05660
1073.30 0.05704
1073.40 0.05750
1073.50 0.05795
1073.60 0.05841
1073.70 0.05888
1073.80 0.05935
1073.90 0.05982
1074.00 0.06029
1074.10 0.06078
1074.20 0.06126
1074.30 0.06175
1074.40 0.06224
1074.50 0.06274
1074.60 0.06324
1074.70 0.06374
1074.80 0.06425
1074.90 0.06476
1075.00 0.06528
1075.10 0.06580
1075.20 0.06633
1075.30 0.06685
1075.40 0.06738
1075.50 0.06792
1075.60 0.06846
1075.70 0.06900
1075.80 0.06954
1075.90 0.07009
1076.00 0.07065
1076.10 0.07121
1076.20 0.07177
1076.30 0.07234
1076.40 0.07291
1076.50 0.07348
1076.60 0.07406
1076.70 0.07464
1076.80 0.07522
1076.90 0.07581
1077.00 0.07641
1077.10 0.07701
1077.20 0.07761
1077.30 0.07821
1077.40 0.07882
1077.50 0.07943
1077.60 0.08005
1077.70 0.08067
1077.80 0.08130
1077.90 0.08193
1078.00 0.08256
1078.10 0.08320
1078.20 0.08384
1078.30 0.08448
1078.40 0.08513
1078.50 0.08578
1078.60 0.08644
1078.70 0.08710
1078.80 0.08776
1078.90 0.08843
1079.00 0.08910
1079.10 0.08978
1079.20 0.09046
1079.30 0.09114
1079.40 0.09183
1079.50 0.09252
1079.60 0.09321
1079.70 0.09391
1079.80 0.09458
1079.90 0.09522
1080.00 0.09587
1080.10 0.09651
1080.20 0.09715
1080.30 0.09780
1080.40 0.09845
1080.50 0.09909
1080.60 0.09974
1080.70 0.10039
1080.80 0.10104
1080.90 0.10170
1081.00 0.10235
1081.10 0.10300
1081.20 0.10366
1081.30 0.10432
1081.40 0.10498
1081.50 0.10564
1081.60 0.10630
1081.70 0.10696
1081.80 0.10762
1081.90 0.10829
1082.00 0.10895
1082.10 0.10962
1082.20 0.11029
1082.30 0.11095
1082.40 0.11162
1082.50 0.11230
1082.60 0.11297
1082.70 0.11364
1082.80 0.11432
1082.90 0.11499
1083.00 0.11567
1083.10 0.11635
1083.20 0.11703
1083.30 0.11771
1083.40 0.11839
1083.50 0.11907
1083.60 0.11976
1083.70 0.12044
1083.80 0.12113
1083.90 0.12182
1084.00 0.12250
1084.10 0.12319
1084.20 0.12388
1084.30 0.12458
1084.40 0.12527
1084.50 0.12589
1084.60 0.12652
1084.70 0.12714
1084.80 0.12776
1084.90 0.12837
1085.00 0.12899
1085.10 0.12960
1085.20 0.13022
1085.30 0.13083
1085.40 0.13143
1085.50 0.13204
1085.60 0.13264
1085.70 0.13325
1085.80 0.13385
1085.90 0.13445
1086.00 0.13505
1086.10 0.13564
1086.20 0.13624
1086.30 0.13683
1086.40 0.13742
1086.50 0.13801
1086.60 0.13859
1086.70 0.13918
1086.80 0.13976
1086.90 0.14035
1087.00 0.14093
1087.10 0.14150
1087.20 0.14208
1087.30 0.14265
1087.40 0.14323
1087.50 0.14380
1087.60 0.14437
1087.70 0.14494
1087.80 0.14550
1087.90 0.14607
1088.00 0.14663
1088.10 0.14719
1088.20 0.14775
1088.30 0.14830
1088.40 0.14886
1088.50 0.14941
1088.60 0.14996
1088.70 0.15051
1088.80 0.15106
1088.90 0.15161
1089.00 0.15215
1089.10 0.15270
1089.20 0.15324
1089.30 0.15378
1089.40 0.15432
1089.50 0.15485
1089.60 0.15539
1089.70 0.15592
1089.80 0.15645
1089.90 0.15698
1090.00 0.15750
1090.10 0.15803
1090.20 0.15855
1090.30 0.15907
1090.40 0.15960
1090.50 0.16011
1090.60 0.16063
1090.70 0.16114
1090.80 0.16166
1090.90 0.16217
1091.00 0.16268
1091.10 0.16319
1091.20 0.16369
1091.30 0.16420
1091.40 0.16470
1091.50 0.16520
1091.60 0.16570
1091.70 0.16620
1091.80 0.16669
1091.90 0.16719
1092.00 0.16768
1092.10 0.16817
1092.20 0.16866
1092.30 0.16914
1092.40 0.16963
1092.50 0.17011
1092.60 0.17059
1092.70 0.17107
1092.80 0.17155
1092.90 0.17203
1093.00 0.17250
1093.10 0.17298
1093.20 0.17345
1093.30 0.17392
1093.40 0.17439
1093.50 0.17485
1093.60 0.17532
1093.70 0.17578
1093.80 0.17630
1093.90 0.17683
1094.00 0.17736
1094.10 0.17788
1094.20 0.17841
1094.30 0.17894
1094.40 0.17947
1094.50 0.18000
1094.60 0.18054
1094.70 0.18107
1094.80 0.18160
1094.90 0.18214
1095.00 0.18267
1095.10 0.18321
1095.20 0.18375
1095.30 0.18429
1095.40 0.18483
1095.50 0.18537
1095.60 0.18591
1095.70 0.18645
1095.80 0.18700
1095.90 0.18754
1096.00 0.18809
1096.10 0.18863
1096.20 0.18918
1096.30 0.18973
1096.40 0.19028
1096.50 0.19083
1096.60 0.19138
1096.70 0.19193
1096.80 0.19248
1096.90 0.19304
1097.00 0.19359
1097.10 0.19415
1097.20 0.19470
1097.30 0.19526
1097.40 0.19582
1097.50 0.19638
1097.60 0.19694
1097.70 0.19750
1097.80 0.19806
1097.90 0.19863
1098.00 0.19919
1098.10 0.19976
1098.20 0.20032
1098.30 0.20089
1098.40 0.20147
1098.50 0.20207
1098.60 0.20267
1098.70 0.20327
1098.80 0.20387
1098.90 0.20448
1099.00 0.20508
1099.10 0.20569
1099.20 0.20630
1099.30 0.20692
1099.40 0.20753
1099.50 0.20815
1099.60 0.20877
1099.70 0.20939
1099.80 0.21002
1099.90 0.21064
1100.00 0.21127
1100.10 0.21190
1100.20 0.21253
1100.30 0.21317
1100.40 0.21380
1100.50 0.21444
1100.60 0.21508
1100.70 0.21573
1100.80 0.21637
1100.90 0.21702
1101.00 0.21767
1101.10 0.21832
1101.20 0.21897
1101.30 0.21962
1101.40 0.22028
1101.50 0.22094
1101.60 0.22160
1101.70 0.22227
1101.80 0.22293
1101.90 0.22360
1102.00 0.22427
1102.10 0.22494
1102.20 0.22561
1102.30 0.22629
1102.40 0.22697
1102.50 0.22765
1102.60 0.22833
1102.70 0.22901
1102.80 0.22970
1102.90 0.23039
1103.00 0.23108
1103.10 0.23172
1103.20 0.23236
1103.30 0.23301
1103.40 0.23365
1103.50 0.23430
1103.60 0.23494
1103.70 0.23559
1103.80 0.23623
1103.90 0.23687
1104.00 0.23752
1104.10 0.23816
1104.20 0.23881
1104.30 0.23945
1104.40 0.24010
1104.50 0.24074
1104.60 0.24139
1104.70 0.24203
1104.80 0.24268
1104.90 0.24332
1105.00 0.24397
1105.10 0.24461
1105.20 0.24526
1105.30 0.24590
1105.40 0.24655
1105.50 0.24719
1105.60 0.24784
1105.70 0.24848
1105.80 0.24913
1105.90 0.24977
1106.00 0.25042
1106.10 0.25106
1106.20 0.25171
1106.30 0.25236
1106.40 0.25300
1106.50 0.25365
1106.60 0.25429
1106.70 0.25494
1106.80 0.25558
1106.90 0.25623
1107.00 0.25688
1107.10 0.25752
1107.20 0.25817
1107.30 0.25881
1107.40 0.25946
1107.50 0.26011
1107.60 0.26075
1107.70 0.26136
1107.80 0.26193
1107.90 0.26249
1108.00 0.26305
1108.10 0.26361
1108.20 0.26416
1108.30 0.26472
1108.40 0.26526
1108.50 0.26581
1108.60 0.26635
1108.70 0.26689
1108.80 0.26743
1108.90 0.26796
1109.00 0.26849
1109.10 0.26901
1109.20 0.26954
1109.30 0.27005
1109.40 0.27057
1109.50 0.27108
1109.60 0.27159
1109.70 0.27210
1109.80 0.27261
1109.90 0.27311
1110.00 0.27360
1110.10 0.27410
1110.20 0.27459
1110.30 0.27508
1110.40 0.27556
1110.50 0.27604
1110.60 0.27652
1110.70 0.27700
1110.80 0.27747
1110.90 0.27794
1111.00 0.27840
1111.10 0.27886
1111.20 0.27932
1111.30 0.27978
1111.40 0.28023
1111.50 0.28068
1111.60 0.28113
1111.70 0.28157
1111.80 0.28201
1111.90 0.28245
1112.00 0.28288
1112.10 0.28332
1112.20 0.28374
1112.30 0.28417
1112.40 0.28457
1112.50 0.28497
1112.60 0.28536
1112.70 0.28575
1112.80 0.28613
1112.90 0.28651
1113.00 0.28689
1113.10 0.28726
1113.20 0.28763
1113.30 0.28799
1113.40 0.28836
1113.50 0.28871
1113.60 0.28906
1113.70 0.28941
1113.80 0.28976
1113.90 0.29010
1114.00 0.29044
1114.10 0.29077
1114.20 0.29110
1114.30 0.29142
1114.40 0.29174
1114.50 0.29206
1114.60 0.29237
1114.70 0.29268
1114.80 0.29298
1114.90 0.29328
1115.00 0.29358
1115.10 0.29387
1115.20 0.29416
1115.30 0.29445
1115.40 0.29473
1115.50 0.29500
1115.60 0.29528
1115.70 0.29555
1115.80 0.29581
1115.90 0.29607
1116.00 0.29633
1116.10 0.29658
1116.20 0.29683
1116.30 0.29707
1116.40 0.29732
1116.50 0.29755
1116.60 0.29779
1116.70 0.29801
1116.80 0.29824
1116.90 0.29846
1117.00 0.29869
1117.10 0.29893
1117.20 0.29917
1117.30 0.29941
1117.40 0.29964
1117.50 0.29987
1117.60 0.30010
1117.70 0.30032
1117.80 0.30054
1117.90 0.30076
1118.00 0.30098
1118.10 0.30119
1118.20 0.30140
1118.30 0.30161
1118.40 0.30181
1118.50 0.30202
