# LSST transmission (instrument+atmosphere)
#   wavelength[nm] Thoughput
386.400000 0.000000
386.500000 0.000254
386.600000 0.000509
386.700000 0.001006
386.800000 0.001503
386.900000 0.002015
387.000000 0.002529
387.100000 0.003030
387.200000 0.003533
387.300000 0.004050
387.400000 0.004569
387.500000 0.005089
387.600000 0.005609
387.700000 0.006116
387.800000 0.006624
387.900000 0.007147
388.000000 0.007670
388.100000 0.008181
388.200000 0.008693
388.300000 0.009220
388.400000 0.009748
388.500000 0.010263
388.600000 0.010782
388.700000 0.011316
388.800000 0.011851
388.900000 0.012374
389.000000 0.012898
389.100000 0.013432
389.200000 0.013968
389.300000 0.014505
389.400000 0.015042
389.500000 0.015567
389.600000 0.016092
389.700000 0.016633
389.800000 0.017174
389.900000 0.017702
390.000000 0.018232
390.100000 0.018783
390.200000 0.019335
390.300000 0.019874
390.400000 0.020415
390.500000 0.020971
390.600000 0.021522
390.700000 0.022075
390.800000 0.022628
390.900000 0.023169
391.000000 0.023711
391.100000 0.024266
391.200000 0.024822
391.300000 0.025365
391.400000 0.025908
391.500000 0.026735
391.600000 0.027563
391.700000 0.028647
391.800000 0.029732
391.900000 0.030820
392.000000 0.031910
392.100000 0.033011
392.200000 0.034115
392.300000 0.035221
392.400000 0.036330
392.500000 0.037442
392.600000 0.038545
392.700000 0.039650
392.800000 0.040758
392.900000 0.041867
393.000000 0.042978
393.100000 0.044106
393.200000 0.045237
393.300000 0.046355
393.400000 0.047475
393.500000 0.048598
393.600000 0.049736
393.700000 0.050876
393.800000 0.052020
393.900000 0.053166
394.000000 0.054314
394.100000 0.055449
394.200000 0.056586
394.300000 0.057726
394.400000 0.058867
394.500000 0.060010
394.600000 0.061156
394.700000 0.062304
394.800000 0.063453
394.900000 0.064620
395.000000 0.065789
395.100000 0.066941
395.200000 0.068095
395.300000 0.069251
395.400000 0.070410
395.500000 0.071571
395.600000 0.072734
395.700000 0.073899
395.800000 0.075066
395.900000 0.076236
396.000000 0.077408
396.100000 0.078605
396.200000 0.079804
396.300000 0.081006
396.400000 0.082210
396.500000 0.083432
396.600000 0.084633
396.700000 0.085821
396.800000 0.087011
396.900000 0.088203
397.000000 0.089396
397.100000 0.090593
397.200000 0.091792
397.300000 0.092993
397.400000 0.094195
397.500000 0.095398
397.600000 0.096603
397.700000 0.097810
397.800000 0.099018
397.900000 0.100228
398.000000 0.101439
398.100000 0.102664
398.200000 0.103890
398.300000 0.105102
398.400000 0.106317
398.500000 0.107533
398.600000 0.108781
398.700000 0.110031
398.800000 0.111284
398.900000 0.112539
399.000000 0.113796
399.100000 0.115024
399.200000 0.116254
399.300000 0.117485
399.400000 0.118718
399.500000 0.119954
399.600000 0.121191
399.700000 0.122430
399.800000 0.123672
399.900000 0.124930
400.000000 0.126190
400.100000 0.127430
400.200000 0.128672
400.300000 0.129916
400.400000 0.131162
400.500000 0.132409
400.600000 0.133658
400.700000 0.134909
400.800000 0.136161
400.900000 0.137416
401.000000 0.138672
401.100000 0.139965
401.200000 0.141260
401.300000 0.142558
401.400000 0.143858
401.500000 0.145176
401.600000 0.146457
401.700000 0.147724
401.800000 0.148993
401.900000 0.150263
402.000000 0.151535
402.100000 0.152816
402.200000 0.154098
402.300000 0.155383
402.400000 0.156669
402.500000 0.157958
402.600000 0.159248
402.700000 0.160540
402.800000 0.161833
402.900000 0.163129
403.000000 0.164427
403.100000 0.165746
403.200000 0.167067
403.300000 0.168375
403.400000 0.169684
403.500000 0.170995
403.600000 0.172309
403.700000 0.173624
403.800000 0.174941
403.900000 0.176260
404.000000 0.177581
404.100000 0.178884
404.200000 0.180188
404.300000 0.181494
404.400000 0.182801
404.500000 0.184110
404.600000 0.185471
404.700000 0.186834
404.800000 0.188199
404.900000 0.189583
405.000000 0.190969
405.100000 0.192298
405.200000 0.193628
405.300000 0.194961
405.400000 0.196295
405.500000 0.197631
405.600000 0.198969
405.700000 0.200308
405.800000 0.201650
405.900000 0.202993
406.000000 0.204338
406.100000 0.205689
406.200000 0.207043
406.300000 0.208398
406.400000 0.209755
406.500000 0.211130
406.600000 0.212507
406.700000 0.213870
406.800000 0.215234
406.900000 0.216601
407.000000 0.217969
407.100000 0.219329
407.200000 0.220691
407.300000 0.222054
407.400000 0.223419
407.500000 0.224786
407.600000 0.226155
407.700000 0.227525
407.800000 0.228897
407.900000 0.230271
408.000000 0.231647
408.100000 0.233046
408.200000 0.234447
408.300000 0.235834
408.400000 0.237223
408.500000 0.238613
408.600000 0.240005
408.700000 0.241400
408.800000 0.242795
408.900000 0.244193
409.000000 0.245593
409.100000 0.246983
409.200000 0.248376
409.300000 0.249770
409.400000 0.251166
409.500000 0.252563
409.600000 0.253963
409.700000 0.255364
409.800000 0.256766
409.900000 0.258187
410.000000 0.259610
410.100000 0.261015
410.200000 0.262422
410.300000 0.263831
410.400000 0.265241
410.500000 0.266653
410.600000 0.268138
410.700000 0.269626
410.800000 0.271115
410.900000 0.272608
411.000000 0.274102
411.100000 0.275534
411.200000 0.276967
411.300000 0.278402
411.400000 0.279839
411.500000 0.281294
411.600000 0.282751
411.700000 0.284193
411.800000 0.285637
411.900000 0.287083
412.000000 0.288530
412.100000 0.289966
412.200000 0.291403
412.300000 0.292373
412.400000 0.293344
412.500000 0.294149
412.600000 0.294954
412.700000 0.295778
412.800000 0.296602
412.900000 0.297427
413.000000 0.298253
413.100000 0.299076
413.200000 0.299901
413.300000 0.300743
413.400000 0.301586
413.500000 0.302414
413.600000 0.303242
413.700000 0.304088
413.800000 0.304935
413.900000 0.305766
414.000000 0.306598
414.100000 0.307432
414.200000 0.308267
414.300000 0.309086
414.400000 0.309906
414.500000 0.310744
414.600000 0.311582
414.700000 0.312421
414.800000 0.313262
414.900000 0.314086
415.000000 0.314911
415.100000 0.315743
415.200000 0.316576
415.300000 0.317392
415.400000 0.318210
415.500000 0.319045
415.600000 0.319882
415.700000 0.320548
415.800000 0.321214
415.900000 0.321403
416.000000 0.321591
416.100000 0.321805
416.200000 0.322020
416.300000 0.322234
416.400000 0.322449
416.500000 0.322663
416.600000 0.322878
416.700000 0.323093
416.800000 0.323308
416.900000 0.323523
417.000000 0.323739
417.100000 0.323919
417.200000 0.324100
417.300000 0.324281
417.400000 0.324462
417.500000 0.324643
417.600000 0.324824
417.700000 0.325005
417.800000 0.325186
417.900000 0.325367
418.000000 0.325549
418.100000 0.325752
418.200000 0.325956
418.300000 0.326160
418.400000 0.326364
418.500000 0.326568
418.600000 0.326772
418.700000 0.326976
418.800000 0.327180
418.900000 0.327384
419.000000 0.327589
419.100000 0.327786
419.200000 0.327983
419.300000 0.328181
419.400000 0.328378
419.500000 0.328576
419.600000 0.328774
419.700000 0.328971
419.800000 0.329169
419.900000 0.329367
420.000000 0.329565
420.100000 0.329751
420.200000 0.329936
420.300000 0.330122
420.400000 0.330308
420.500000 0.330494
420.600000 0.330680
420.700000 0.330866
420.800000 0.331052
420.900000 0.331238
421.000000 0.331424
421.100000 0.331608
421.200000 0.331792
421.300000 0.331976
421.400000 0.332160
421.500000 0.332344
421.600000 0.332529
421.700000 0.332713
421.800000 0.332897
421.900000 0.333082
422.000000 0.333266
422.100000 0.333450
422.200000 0.333635
422.300000 0.333819
422.400000 0.334003
422.500000 0.334188
422.600000 0.334373
422.700000 0.334557
422.800000 0.334742
422.900000 0.334927
423.000000 0.335112
423.100000 0.335214
423.200000 0.335316
423.300000 0.335418
423.400000 0.335520
423.500000 0.335623
423.600000 0.335811
423.700000 0.336000
423.800000 0.336188
423.900000 0.336377
424.000000 0.336566
424.100000 0.336753
424.200000 0.336940
424.300000 0.337128
424.400000 0.337316
424.500000 0.337503
424.600000 0.337691
424.700000 0.337879
424.800000 0.338067
424.900000 0.338255
425.000000 0.338443
425.100000 0.338643
425.200000 0.338843
425.300000 0.339043
425.400000 0.339243
425.500000 0.339443
425.600000 0.339644
425.700000 0.339844
425.800000 0.340045
425.900000 0.340245
426.000000 0.340446
426.100000 0.340626
426.200000 0.340806
426.300000 0.340986
426.400000 0.341166
426.500000 0.341346
426.600000 0.341526
426.700000 0.341706
426.800000 0.341886
426.900000 0.342067
427.000000 0.342247
427.100000 0.342406
427.200000 0.342565
427.300000 0.342724
427.400000 0.342884
427.500000 0.343043
427.600000 0.343115
427.700000 0.343187
427.800000 0.343259
427.900000 0.343331
428.000000 0.343403
428.100000 0.343670
428.200000 0.343936
428.300000 0.344203
428.400000 0.344470
428.500000 0.344737
428.600000 0.344916
428.700000 0.345096
428.800000 0.345276
428.900000 0.345456
429.000000 0.345635
429.100000 0.345832
429.200000 0.346029
429.300000 0.346226
429.400000 0.346423
429.500000 0.346620
429.600000 0.346730
429.700000 0.346840
429.800000 0.346949
429.900000 0.347059
430.000000 0.347168
430.100000 0.347338
430.200000 0.347508
430.300000 0.347677
430.400000 0.347847
430.500000 0.348017
430.600000 0.348187
430.700000 0.348357
430.800000 0.348527
430.900000 0.348697
431.000000 0.348867
431.100000 0.349037
431.200000 0.349207
431.300000 0.349377
431.400000 0.349547
431.500000 0.349717
431.600000 0.349887
431.700000 0.350057
431.800000 0.350227
431.900000 0.350398
432.000000 0.350568
432.100000 0.350758
432.200000 0.350949
432.300000 0.351139
432.400000 0.351330
432.500000 0.351520
432.600000 0.351623
432.700000 0.351725
432.800000 0.351827
432.900000 0.351930
433.000000 0.352032
433.100000 0.352191
433.200000 0.352349
433.300000 0.352508
433.400000 0.352667
433.500000 0.352826
433.600000 0.352985
433.700000 0.353145
433.800000 0.353304
433.900000 0.353464
434.000000 0.353624
434.100000 0.353702
434.200000 0.353780
434.300000 0.353858
434.400000 0.353935
434.500000 0.354012
434.600000 0.354177
434.700000 0.354341
434.800000 0.354504
434.900000 0.354667
435.000000 0.354829
435.100000 0.354986
435.200000 0.355143
435.300000 0.355298
435.400000 0.355454
435.500000 0.355608
435.600000 0.355762
435.700000 0.355916
435.800000 0.356070
435.900000 0.356223
436.000000 0.356376
436.100000 0.356531
436.200000 0.356686
436.300000 0.356841
436.400000 0.356996
436.500000 0.357150
436.600000 0.357305
436.700000 0.357458
436.800000 0.357612
436.900000 0.357764
437.000000 0.357917
437.100000 0.358056
437.200000 0.358195
437.300000 0.358333
437.400000 0.358472
437.500000 0.358610
437.600000 0.358749
437.700000 0.358887
437.800000 0.359026
437.900000 0.359165
438.000000 0.359305
438.100000 0.359354
438.200000 0.359403
438.300000 0.359453
438.400000 0.359504
438.500000 0.359555
438.600000 0.359696
438.700000 0.359837
438.800000 0.359978
438.900000 0.360120
439.000000 0.360262
439.100000 0.360313
439.200000 0.360364
439.300000 0.360416
439.400000 0.360468
439.500000 0.360520
439.600000 0.360663
439.700000 0.360806
439.800000 0.360950
439.900000 0.361095
440.000000 0.361240
440.100000 0.361398
440.200000 0.361556
440.300000 0.361715
440.400000 0.361875
440.500000 0.362035
440.600000 0.362197
440.700000 0.362359
440.800000 0.362521
440.900000 0.362684
441.000000 0.362848
441.100000 0.363006
441.200000 0.363164
441.300000 0.363322
441.400000 0.363480
441.500000 0.363637
441.600000 0.363795
441.700000 0.363952
441.800000 0.364110
441.900000 0.364267
442.000000 0.364425
442.100000 0.364568
442.200000 0.364711
442.300000 0.364855
442.400000 0.364998
442.500000 0.365142
442.600000 0.365195
442.700000 0.365249
442.800000 0.365302
442.900000 0.365356
443.000000 0.365410
443.100000 0.365549
443.200000 0.365689
443.300000 0.365829
443.400000 0.365969
443.500000 0.366109
443.600000 0.366248
443.700000 0.366388
443.800000 0.366528
443.900000 0.366668
444.000000 0.366808
444.100000 0.366846
444.200000 0.366885
444.300000 0.366923
444.400000 0.366961
444.500000 0.366999
444.600000 0.367037
444.700000 0.367075
444.800000 0.367113
444.900000 0.367152
445.000000 0.367190
445.100000 0.367351
445.200000 0.367512
445.300000 0.367674
445.400000 0.367835
445.500000 0.367996
445.600000 0.368158
445.700000 0.368319
445.800000 0.368481
445.900000 0.368642
446.000000 0.368804
446.100000 0.369033
446.200000 0.369263
446.300000 0.369492
446.400000 0.369722
446.500000 0.369952
446.600000 0.370000
446.700000 0.370049
446.800000 0.370098
446.900000 0.370147
447.000000 0.370196
447.100000 0.370334
447.200000 0.370473
447.300000 0.370612
447.400000 0.370751
447.500000 0.370890
447.600000 0.370938
447.700000 0.370987
447.800000 0.371035
447.900000 0.371083
448.000000 0.371132
448.100000 0.371281
448.200000 0.371430
448.300000 0.371580
448.400000 0.371729
448.500000 0.371879
448.600000 0.372029
448.700000 0.372179
448.800000 0.372330
448.900000 0.372481
449.000000 0.372631
449.100000 0.372754
449.200000 0.372876
449.300000 0.372998
449.400000 0.373119
449.500000 0.373239
449.600000 0.373359
449.700000 0.373479
449.800000 0.373597
449.900000 0.373715
450.000000 0.373832
450.100000 0.373867
450.200000 0.373901
450.300000 0.373934
450.400000 0.373966
450.500000 0.373998
450.600000 0.374120
450.700000 0.374241
450.800000 0.374362
450.900000 0.374483
451.000000 0.374603
451.100000 0.374711
451.200000 0.374819
451.300000 0.374927
451.400000 0.375035
451.500000 0.375143
451.600000 0.375160
451.700000 0.375177
451.800000 0.375194
451.900000 0.375210
452.000000 0.375226
452.100000 0.375350
452.200000 0.375473
452.300000 0.375596
452.400000 0.375719
452.500000 0.375842
452.600000 0.375964
452.700000 0.376086
452.800000 0.376208
452.900000 0.376330
453.000000 0.376451
453.100000 0.376491
453.200000 0.376530
453.300000 0.376570
453.400000 0.376610
453.500000 0.376650
453.600000 0.376781
453.700000 0.376913
453.800000 0.377044
453.900000 0.377175
454.000000 0.377307
454.100000 0.377416
454.200000 0.377526
454.300000 0.377636
454.400000 0.377748
454.500000 0.377860
454.600000 0.377973
454.700000 0.378087
454.800000 0.378201
454.900000 0.378317
455.000000 0.378434
455.100000 0.378458
455.200000 0.378484
455.300000 0.378510
455.400000 0.378536
455.500000 0.378563
455.600000 0.378683
455.700000 0.378802
455.800000 0.378923
455.900000 0.379043
456.000000 0.379164
456.100000 0.379186
456.200000 0.379209
456.300000 0.379231
456.400000 0.379253
456.500000 0.379275
456.600000 0.379388
456.700000 0.379500
456.800000 0.379613
456.900000 0.379725
457.000000 0.379838
457.100000 0.379975
457.200000 0.380112
457.300000 0.380249
457.400000 0.380387
457.500000 0.380524
457.600000 0.380569
457.700000 0.380615
457.800000 0.380661
457.900000 0.380707
458.000000 0.380753
458.100000 0.380778
458.200000 0.380802
458.300000 0.380827
458.400000 0.380852
458.500000 0.380877
458.600000 0.380993
458.700000 0.381110
458.800000 0.381227
458.900000 0.381344
459.000000 0.381461
459.100000 0.381590
459.200000 0.381720
459.300000 0.381849
459.400000 0.381978
459.500000 0.382107
459.600000 0.382143
459.700000 0.382180
459.800000 0.382215
459.900000 0.382251
460.000000 0.382285
460.100000 0.382405
460.200000 0.382524
460.300000 0.382642
460.400000 0.382760
460.500000 0.382877
460.600000 0.382901
460.700000 0.382925
460.800000 0.382949
460.900000 0.382972
461.000000 0.382994
461.100000 0.383088
461.200000 0.383180
461.300000 0.383272
461.400000 0.383364
461.500000 0.383456
461.600000 0.383456
461.700000 0.383455
461.800000 0.383453
461.900000 0.383452
462.000000 0.383449
462.100000 0.383560
462.200000 0.383671
462.300000 0.383781
462.400000 0.383892
462.500000 0.384002
462.600000 0.384113
462.700000 0.384224
462.800000 0.384335
462.900000 0.384446
463.000000 0.384557
463.100000 0.384576
463.200000 0.384594
463.300000 0.384612
463.400000 0.384630
463.500000 0.384649
463.600000 0.384759
463.700000 0.384868
463.800000 0.384977
463.900000 0.385086
464.000000 0.385195
464.100000 0.385195
464.200000 0.385194
464.300000 0.385194
464.400000 0.385195
464.500000 0.385195
464.600000 0.385289
464.700000 0.385382
464.800000 0.385477
464.900000 0.385573
465.000000 0.385670
465.100000 0.385777
465.200000 0.385886
465.300000 0.385995
465.400000 0.386106
465.500000 0.386218
465.600000 0.386331
465.700000 0.386445
465.800000 0.386560
465.900000 0.386675
466.000000 0.386791
466.100000 0.386922
466.200000 0.387054
466.300000 0.387186
466.400000 0.387317
466.500000 0.387449
466.600000 0.387487
466.700000 0.387526
466.800000 0.387565
466.900000 0.387604
467.000000 0.387643
467.100000 0.387752
467.200000 0.387861
467.300000 0.387971
467.400000 0.388080
467.500000 0.388189
467.600000 0.388207
467.700000 0.388224
467.800000 0.388241
467.900000 0.388259
468.000000 0.388276
468.100000 0.388386
468.200000 0.388496
468.300000 0.388606
468.400000 0.388715
468.500000 0.388825
468.600000 0.388843
468.700000 0.388861
468.800000 0.388879
468.900000 0.388897
469.000000 0.388915
469.100000 0.389019
469.200000 0.389124
469.300000 0.389228
469.400000 0.389332
469.500000 0.389437
469.600000 0.389449
469.700000 0.389462
469.800000 0.389474
469.900000 0.389487
470.000000 0.389499
470.100000 0.389597
470.200000 0.389695
470.300000 0.389793
470.400000 0.389891
470.500000 0.389989
470.600000 0.390087
470.700000 0.390185
470.800000 0.390283
470.900000 0.390381
471.000000 0.390479
471.100000 0.390511
471.200000 0.390544
471.300000 0.390577
471.400000 0.390609
471.500000 0.390642
471.600000 0.390767
471.700000 0.390891
471.800000 0.391016
471.900000 0.391141
472.000000 0.391265
472.100000 0.391270
472.200000 0.391274
472.300000 0.391278
472.400000 0.391283
472.500000 0.391287
472.600000 0.391384
472.700000 0.391480
472.800000 0.391576
472.900000 0.391673
473.000000 0.391769
473.100000 0.391783
473.200000 0.391796
473.300000 0.391810
473.400000 0.391823
473.500000 0.391837
473.600000 0.391942
473.700000 0.392048
473.800000 0.392154
473.900000 0.392259
474.000000 0.392365
474.100000 0.392386
474.200000 0.392407
474.300000 0.392428
474.400000 0.392450
474.500000 0.392471
474.600000 0.392492
474.700000 0.392513
474.800000 0.392534
474.900000 0.392556
475.000000 0.392577
475.100000 0.392671
475.200000 0.392766
475.300000 0.392860
475.400000 0.392955
475.500000 0.393049
475.600000 0.393052
475.700000 0.393054
475.800000 0.393057
475.900000 0.393059
476.000000 0.393061
476.100000 0.393158
476.200000 0.393254
476.300000 0.393351
476.400000 0.393447
476.500000 0.393544
476.600000 0.393548
476.700000 0.393553
476.800000 0.393557
476.900000 0.393561
477.000000 0.393566
477.100000 0.393580
477.200000 0.393594
477.300000 0.393607
477.400000 0.393621
477.500000 0.393635
477.600000 0.393741
477.700000 0.393847
477.800000 0.393953
477.900000 0.394060
478.000000 0.394166
478.100000 0.394177
478.200000 0.394189
478.300000 0.394201
478.400000 0.394213
478.500000 0.394225
478.600000 0.394237
478.700000 0.394248
478.800000 0.394260
478.900000 0.394272
479.000000 0.394284
479.100000 0.394287
479.200000 0.394290
479.300000 0.394293
479.400000 0.394296
479.500000 0.394300
479.600000 0.394303
479.700000 0.394306
479.800000 0.394309
479.900000 0.394312
480.000000 0.394315
480.100000 0.394411
480.200000 0.394506
480.300000 0.394601
480.400000 0.394696
480.500000 0.394792
480.600000 0.394795
480.700000 0.394798
480.800000 0.394801
480.900000 0.394804
481.000000 0.394807
481.100000 0.394900
481.200000 0.394994
481.300000 0.395087
481.400000 0.395181
481.500000 0.395274
481.600000 0.395275
481.700000 0.395276
481.800000 0.395277
481.900000 0.395279
482.000000 0.395280
482.100000 0.395394
482.200000 0.395508
482.300000 0.395622
482.400000 0.395737
482.500000 0.395851
482.600000 0.395873
482.700000 0.395895
482.800000 0.395917
482.900000 0.395939
483.000000 0.395961
483.100000 0.396056
483.200000 0.396150
483.300000 0.396245
483.400000 0.396340
483.500000 0.396434
483.600000 0.396530
483.700000 0.396625
483.800000 0.396721
483.900000 0.396816
484.000000 0.396912
484.100000 0.396912
484.200000 0.396912
484.300000 0.396911
484.400000 0.396910
484.500000 0.396908
484.600000 0.396998
484.700000 0.397087
484.800000 0.397175
484.900000 0.397262
485.000000 0.397349
485.100000 0.397334
485.200000 0.397319
485.300000 0.397302
485.400000 0.397285
485.500000 0.397267
485.600000 0.397341
485.700000 0.397414
485.800000 0.397487
485.900000 0.397559
