# LSST transmission (instrument+atmosphere)
#   wavelength[nm] Thoughput
908.400000 0.000000
908.500000 0.000359
908.600000 0.000719
908.700000 0.001457
908.800000 0.002196
908.900000 0.002935
909.000000 0.003673
909.100000 0.004396
909.200000 0.005120
909.300000 0.005865
909.400000 0.006612
909.500000 0.007360
909.600000 0.008106
909.700000 0.008833
909.800000 0.009560
909.900000 0.010308
910.000000 0.011057
910.100000 0.011778
910.200000 0.012496
910.300000 0.013192
910.400000 0.013884
910.500000 0.014594
910.600000 0.015370
910.700000 0.016150
910.800000 0.016933
910.900000 0.017700
911.000000 0.018470
911.100000 0.019234
911.200000 0.019999
911.300000 0.020766
911.400000 0.021534
911.500000 0.022283
911.600000 0.022947
911.700000 0.023627
911.800000 0.024304
911.900000 0.024956
912.000000 0.025604
912.100000 0.026408
912.200000 0.027216
912.300000 0.028028
912.400000 0.028843
912.500000 0.029642
912.600000 0.030191
912.700000 0.030752
912.800000 0.031304
912.900000 0.031848
913.000000 0.032383
913.100000 0.032871
913.200000 0.033351
913.300000 0.033840
913.400000 0.034320
913.500000 0.035152
913.600000 0.036407
913.700000 0.038037
913.800000 0.039682
913.900000 0.041323
914.000000 0.042979
914.100000 0.044769
914.200000 0.046580
914.300000 0.048412
914.400000 0.050265
914.500000 0.052119
914.600000 0.053469
914.700000 0.054830
914.800000 0.056184
914.900000 0.057529
915.000000 0.058866
915.100000 0.059687
915.200000 0.060475
915.300000 0.061210
915.400000 0.061913
915.500000 0.062602
915.600000 0.064196
915.700000 0.065798
915.800000 0.067407
915.900000 0.069025
916.000000 0.070650
916.100000 0.072854
916.200000 0.075088
916.300000 0.077373
916.400000 0.079688
916.500000 0.082034
916.600000 0.083561
916.700000 0.085089
916.800000 0.086617
916.900000 0.088126
917.000000 0.089635
917.100000 0.090454
917.200000 0.091249
917.300000 0.092023
917.400000 0.092774
917.500000 0.093503
917.600000 0.094634
917.700000 0.095737
917.800000 0.096829
917.900000 0.097932
918.000000 0.099025
918.100000 0.101014
918.200000 0.103018
918.300000 0.105019
918.400000 0.107034
918.500000 0.109084
918.600000 0.111173
918.700000 0.113279
918.800000 0.115400
918.900000 0.117537
919.000000 0.119689
919.100000 0.121371
919.200000 0.123057
919.300000 0.124768
919.400000 0.126484
919.500000 0.128203
919.600000 0.129708
919.700000 0.131212
919.800000 0.132715
919.900000 0.134197
920.000000 0.135678
920.100000 0.137542
920.200000 0.139413
920.300000 0.141291
920.400000 0.143176
920.500000 0.145068
920.600000 0.146507
920.700000 0.147924
920.800000 0.149339
920.900000 0.150771
921.000000 0.152202
921.100000 0.153257
921.200000 0.154303
921.300000 0.155340
921.400000 0.156368
921.500000 0.157367
921.600000 0.158726
921.700000 0.160104
921.800000 0.161479
921.900000 0.162851
922.000000 0.164222
922.100000 0.165983
922.200000 0.167750
922.300000 0.169540
922.400000 0.171336
922.500000 0.173135
922.600000 0.174500
922.700000 0.175862
922.800000 0.177222
922.900000 0.178559
923.000000 0.179893
923.100000 0.181156
923.200000 0.182414
923.300000 0.183668
923.400000 0.184918
923.500000 0.186164
923.600000 0.187328
923.700000 0.188468
923.800000 0.189603
923.900000 0.190753
924.000000 0.191897
924.100000 0.193068
924.200000 0.194234
924.300000 0.195393
924.400000 0.196547
924.500000 0.197676
924.600000 0.198968
924.700000 0.200276
924.800000 0.201580
924.900000 0.202879
925.000000 0.204175
925.100000 0.205746
925.200000 0.207317
925.300000 0.208907
925.400000 0.210497
925.500000 0.212086
925.600000 0.213584
925.700000 0.215081
925.800000 0.216576
925.900000 0.218051
926.000000 0.219525
926.100000 0.220970
926.200000 0.222414
926.300000 0.223858
926.400000 0.225301
926.500000 0.226745
926.600000 0.228332
926.700000 0.229901
926.800000 0.231471
926.900000 0.233062
927.000000 0.234654
927.100000 0.234726
927.200000 0.234781
927.300000 0.234821
927.400000 0.234846
927.500000 0.234835
927.600000 0.234303
927.700000 0.233768
927.800000 0.233212
927.900000 0.232636
928.000000 0.232039
928.100000 0.232915
928.200000 0.233786
928.300000 0.234633
928.400000 0.235475
928.500000 0.236330
928.600000 0.236914
928.700000 0.237490
928.800000 0.238060
928.900000 0.238603
929.000000 0.239139
929.100000 0.239203
929.200000 0.239252
929.300000 0.239288
929.400000 0.239310
929.500000 0.239316
929.600000 0.238300
929.700000 0.237242
929.800000 0.236161
929.900000 0.235072
930.000000 0.233959
930.100000 0.233069
930.200000 0.232157
930.300000 0.231223
930.400000 0.230267
930.500000 0.229274
930.600000 0.228318
930.700000 0.227357
930.800000 0.226375
930.900000 0.225374
931.000000 0.224352
931.100000 0.223038
931.200000 0.221703
931.300000 0.220333
931.400000 0.218944
931.500000 0.217551
931.600000 0.214127
931.700000 0.210667
931.800000 0.207172
931.900000 0.203643
932.000000 0.200079
932.100000 0.199211
932.200000 0.198329
932.300000 0.197446
932.400000 0.196549
932.500000 0.195639
932.600000 0.196742
932.700000 0.197834
932.800000 0.198927
932.900000 0.200033
933.000000 0.201141
933.100000 0.200627
933.200000 0.200102
933.300000 0.199567
933.400000 0.199021
933.500000 0.198454
933.600000 0.194464
933.700000 0.190451
933.800000 0.186406
933.900000 0.182327
934.000000 0.178215
934.100000 0.177068
934.200000 0.175908
934.300000 0.174726
934.400000 0.173533
934.500000 0.172337
934.600000 0.178452
934.700000 0.184602
934.800000 0.190788
934.900000 0.197008
935.000000 0.203264
935.100000 0.205689
935.200000 0.208126
935.300000 0.210273
935.400000 0.212428
935.500000 0.214472
935.600000 0.213040
935.700000 0.211605
935.800000 0.210164
935.900000 0.208719
936.000000 0.207269
936.100000 0.208282
936.200000 0.209297
936.300000 0.210312
936.400000 0.211329
936.500000 0.212346
936.600000 0.211460
936.700000 0.210571
936.800000 0.209678
936.900000 0.208783
937.000000 0.207884
937.100000 0.210303
937.200000 0.212726
937.300000 0.215154
937.400000 0.217585
937.500000 0.220020
937.600000 0.221104
937.700000 0.222084
937.800000 0.223064
937.900000 0.223704
938.000000 0.224342
938.100000 0.225152
938.200000 0.225959
938.300000 0.226765
938.400000 0.227570
938.500000 0.228373
938.600000 0.234345
938.700000 0.240304
938.800000 0.246252
938.900000 0.252189
939.000000 0.258117
939.100000 0.264248
939.200000 0.270367
939.300000 0.276475
939.400000 0.282574
939.500000 0.288665
939.600000 0.287451
939.700000 0.286246
939.800000 0.285048
939.900000 0.283859
940.000000 0.282679
940.100000 0.279072
940.200000 0.275475
940.300000 0.271889
940.400000 0.268312
940.500000 0.264744
940.600000 0.264388
940.700000 0.264036
940.800000 0.263689
940.900000 0.263344
941.000000 0.263002
941.100000 0.264758
941.200000 0.266512
941.300000 0.268263
941.400000 0.270010
941.500000 0.271753
941.600000 0.271137
941.700000 0.270521
941.800000 0.269907
941.900000 0.269293
942.000000 0.268680
942.100000 0.263361
942.200000 0.258050
942.300000 0.252748
942.400000 0.247455
942.500000 0.242170
942.600000 0.238198
942.700000 0.234233
942.800000 0.230274
942.900000 0.226321
943.000000 0.222374
943.100000 0.225196
943.200000 0.228014
943.300000 0.230829
943.400000 0.233641
943.500000 0.236449
943.600000 0.233864
943.700000 0.231279
943.800000 0.228697
943.900000 0.226118
944.000000 0.223541
944.100000 0.221218
944.200000 0.218899
944.300000 0.216584
944.400000 0.214274
944.500000 0.211969
944.600000 0.217396
944.700000 0.222819
944.800000 0.228238
944.900000 0.233653
945.000000 0.239064
945.100000 0.239874
945.200000 0.240687
945.300000 0.241501
945.400000 0.242316
945.500000 0.243134
945.600000 0.239840
945.700000 0.236552
945.800000 0.233268
945.900000 0.229989
946.000000 0.226714
946.100000 0.227813
946.200000 0.228910
946.300000 0.230007
946.400000 0.231101
946.500000 0.232192
946.600000 0.235225
946.700000 0.238255
946.800000 0.241282
946.900000 0.244305
947.000000 0.247325
947.100000 0.246728
947.200000 0.246132
947.300000 0.245536
947.400000 0.244941
947.500000 0.244347
947.600000 0.239956
947.700000 0.235571
947.800000 0.231194
947.900000 0.226822
948.000000 0.222457
948.100000 0.224155
948.200000 0.225850
948.300000 0.227544
948.400000 0.229237
948.500000 0.230927
948.600000 0.236922
948.700000 0.242911
948.800000 0.248896
948.900000 0.254876
949.000000 0.260850
949.100000 0.257465
949.200000 0.254084
949.300000 0.250706
949.400000 0.247331
949.500000 0.243960
949.600000 0.239209
949.700000 0.234462
949.800000 0.229720
949.900000 0.224983
950.000000 0.220250
950.100000 0.223470
950.200000 0.226684
950.300000 0.229894
950.400000 0.233099
950.500000 0.236299
950.600000 0.242114
950.700000 0.247921
950.800000 0.253719
950.900000 0.259509
951.000000 0.265291
951.100000 0.264240
951.200000 0.263190
951.300000 0.262142
951.400000 0.261094
951.500000 0.260048
951.600000 0.253475
951.700000 0.246912
951.800000 0.240358
951.900000 0.233814
952.000000 0.227280
952.100000 0.225486
952.200000 0.223695
952.300000 0.221907
952.400000 0.220121
952.500000 0.218337
952.600000 0.221655
952.700000 0.224967
952.800000 0.228274
952.900000 0.231576
953.000000 0.234872
953.100000 0.236875
953.200000 0.238874
953.300000 0.240870
953.400000 0.242863
953.500000 0.244852
953.600000 0.245236
953.700000 0.245620
953.800000 0.246004
953.900000 0.246386
954.000000 0.246767
954.100000 0.245850
954.200000 0.244933
954.300000 0.244017
954.400000 0.243101
954.500000 0.242185
954.600000 0.242414
954.700000 0.242642
954.800000 0.242868
954.900000 0.243093
955.000000 0.243317
955.100000 0.242230
955.200000 0.241144
955.300000 0.240058
955.400000 0.238972
955.500000 0.237886
955.600000 0.236737
955.700000 0.235588
955.800000 0.234440
955.900000 0.233293
956.000000 0.232146
956.100000 0.232266
956.200000 0.232384
956.300000 0.232502
956.400000 0.232619
956.500000 0.232736
956.600000 0.233165
956.700000 0.233593
956.800000 0.234020
956.900000 0.234446
957.000000 0.234870
957.100000 0.238511
957.200000 0.242144
957.300000 0.245771
957.400000 0.249390
957.500000 0.253002
957.600000 0.253134
957.700000 0.253266
957.800000 0.253397
957.900000 0.253528
958.000000 0.253658
958.100000 0.251660
958.200000 0.249665
958.300000 0.247673
958.400000 0.245683
958.500000 0.243697
958.600000 0.241898
958.700000 0.240101
958.800000 0.238307
958.900000 0.236516
959.000000 0.234727
959.100000 0.233338
959.200000 0.231952
959.300000 0.230567
959.400000 0.229184
959.500000 0.227802
959.600000 0.229530
959.700000 0.231253
959.800000 0.232971
959.900000 0.234685
960.000000 0.236395
960.100000 0.238049
960.200000 0.239699
960.300000 0.241344
960.400000 0.242985
960.500000 0.244623
960.600000 0.245652
960.700000 0.246679
960.800000 0.247703
960.900000 0.248724
961.000000 0.249742
961.100000 0.250766
961.200000 0.251787
961.300000 0.252805
961.400000 0.253821
961.500000 0.254834
961.600000 0.253336
961.700000 0.251840
961.800000 0.250346
961.900000 0.248855
962.000000 0.247365
962.100000 0.244827
962.200000 0.242293
962.300000 0.239762
962.400000 0.237235
962.500000 0.234712
962.600000 0.236457
962.700000 0.238198
962.800000 0.239935
962.900000 0.241668
963.000000 0.243397
963.100000 0.245109
963.200000 0.246817
963.300000 0.248521
963.400000 0.250222
963.500000 0.251919
963.600000 0.251031
963.700000 0.250146
963.800000 0.249261
963.900000 0.248378
964.000000 0.247497
964.100000 0.247251
964.200000 0.247005
964.300000 0.246759
964.400000 0.246513
964.500000 0.246266
964.600000 0.246889
964.700000 0.247509
964.800000 0.248127
964.900000 0.248741
965.000000 0.249352
965.100000 0.250554
965.200000 0.251752
965.300000 0.252947
965.400000 0.254138
965.500000 0.255325
965.600000 0.254040
965.700000 0.252756
965.800000 0.251474
965.900000 0.250193
966.000000 0.248913
966.100000 0.246647
966.200000 0.244385
966.300000 0.242128
966.400000 0.239875
966.500000 0.237627
966.600000 0.238394
966.700000 0.239159
966.800000 0.239923
966.900000 0.240684
967.000000 0.241443
967.100000 0.245045
967.200000 0.248639
967.300000 0.252225
967.400000 0.255804
967.500000 0.259375
967.600000 0.260409
967.700000 0.261440
967.800000 0.262468
967.900000 0.263494
968.000000 0.264516
968.100000 0.263134
968.200000 0.261754
968.300000 0.260376
968.400000 0.259000
968.500000 0.257627
968.600000 0.258034
968.700000 0.258439
968.800000 0.258842
968.900000 0.259243
969.000000 0.259642
969.100000 0.260084
969.200000 0.260524
969.300000 0.260963
969.400000 0.261399
969.500000 0.261834
969.600000 0.261003
969.700000 0.260173
969.800000 0.259344
969.900000 0.258515
970.000000 0.257687
970.100000 0.257208
970.200000 0.256729
970.300000 0.256250
970.400000 0.255771
970.500000 0.255292
970.600000 0.255683
970.700000 0.256073
970.800000 0.256460
970.900000 0.256847
971.000000 0.257231
971.100000 0.256361
971.200000 0.255493
971.300000 0.254626
971.400000 0.253760
971.500000 0.252895
971.600000 0.252354
971.700000 0.251813
971.800000 0.251273
971.900000 0.250732
972.000000 0.250192
972.100000 0.249747
972.200000 0.249303
972.300000 0.248858
972.400000 0.248414
972.500000 0.247969
972.600000 0.246995
972.700000 0.246022
972.800000 0.245051
972.900000 0.244082
973.000000 0.243115
973.100000 0.242398
973.200000 0.241683
973.300000 0.240969
973.400000 0.240256
973.500000 0.239544
973.600000 0.239096
973.700000 0.238647
973.800000 0.238199
973.900000 0.237752
974.000000 0.237305
974.100000 0.236585
974.200000 0.235865
974.300000 0.235147
974.400000 0.234430
974.500000 0.233714
974.600000 0.232998
974.700000 0.232284
974.800000 0.231571
974.900000 0.230858
975.000000 0.230147
975.100000 0.230047
975.200000 0.229945
975.300000 0.229844
975.400000 0.229742
975.500000 0.229639
975.600000 0.229127
975.700000 0.228615
975.800000 0.228104
975.900000 0.227593
976.000000 0.227083
976.100000 0.227287
976.200000 0.227489
976.300000 0.227690
976.400000 0.227889
976.500000 0.228087
976.600000 0.229192
976.700000 0.230292
976.800000 0.231390
976.900000 0.232483
977.000000 0.233573
977.100000 0.233917
977.200000 0.234260
977.300000 0.234601
977.400000 0.234941
977.500000 0.235279
977.600000 0.234470
977.700000 0.233662
977.800000 0.232856
977.900000 0.232051
978.000000 0.231247
978.100000 0.230719
978.200000 0.230192
978.300000 0.229665
978.400000 0.229138
978.500000 0.228611
978.600000 0.228281
978.700000 0.227952
978.800000 0.227622
978.900000 0.227291
979.000000 0.226961
979.100000 0.226468
979.200000 0.225976
979.300000 0.225484
979.400000 0.224993
979.500000 0.224503
979.600000 0.224547
979.700000 0.224590
979.800000 0.224633
979.900000 0.224675
980.000000 0.224716
980.100000 0.224745
980.200000 0.224774
980.300000 0.224801
980.400000 0.224828
980.500000 0.224853
980.600000 0.225740
980.700000 0.226623
980.800000 0.227503
980.900000 0.228379
981.000000 0.229252
981.100000 0.229343
981.200000 0.229433
981.300000 0.229522
981.400000 0.229609
981.500000 0.229695
981.600000 0.229166
981.700000 0.228637
981.800000 0.228108
981.900000 0.227580
982.000000 0.227052
982.100000 0.226384
982.200000 0.225718
982.300000 0.225053
982.400000 0.224389
982.500000 0.223726
982.600000 0.223345
982.700000 0.222963
982.800000 0.222582
982.900000 0.222201
983.000000 0.221820
983.100000 0.222145
983.200000 0.222467
983.300000 0.222788
983.400000 0.223107
983.500000 0.223424
983.600000 0.223510
983.700000 0.223596
983.800000 0.223680
983.900000 0.223763
984.000000 0.223844
984.100000 0.223352
984.200000 0.222861
984.300000 0.222368
984.400000 0.221876
984.500000 0.221382
984.600000 0.220843
984.700000 0.220303
984.800000 0.219763
984.900000 0.219223
985.000000 0.218681
985.100000 0.218597
985.200000 0.218511
985.300000 0.218423
985.400000 0.218333
985.500000 0.218242
985.600000 0.218283
985.700000 0.218322
985.800000 0.218358
985.900000 0.218393
986.000000 0.218426
986.100000 0.218154
986.200000 0.217883
986.300000 0.217611
986.400000 0.217339
986.500000 0.217067
986.600000 0.216620
986.700000 0.216173
986.800000 0.215727
986.900000 0.215281
987.000000 0.214835
987.100000 0.214446
987.200000 0.214056
987.300000 0.213667
987.400000 0.213278
987.500000 0.212890
987.600000 0.212675
987.700000 0.212459
987.800000 0.212244
987.900000 0.212028
988.000000 0.211812
988.100000 0.211661
988.200000 0.211509
988.300000 0.211357
988.400000 0.211203
988.500000 0.211049
988.600000 0.210724
988.700000 0.210398
988.800000 0.210072
988.900000 0.209746
989.000000 0.209419
989.100000 0.209018
989.200000 0.208618
989.300000 0.208217
989.400000 0.207818
989.500000 0.207419
989.600000 0.206978
989.700000 0.206539
989.800000 0.206100
989.900000 0.205662
990.000000 0.205225
990.100000 0.204931
990.200000 0.204639
990.300000 0.204346
990.400000 0.204054
990.500000 0.203763
990.600000 0.203513
990.700000 0.203264
990.800000 0.203014
990.900000 0.202765
991.000000 0.202515
991.100000 0.202209
991.200000 0.201904
991.300000 0.201597
991.400000 0.201291
991.500000 0.200985
991.600000 0.200718
991.700000 0.200452
991.800000 0.200185
991.900000 0.199918
992.000000 0.199651
992.100000 0.199292
992.200000 0.198933
992.300000 0.198573
992.400000 0.198214
992.500000 0.197855
992.600000 0.197497
992.700000 0.197138
992.800000 0.196779
992.900000 0.196421
993.000000 0.196063
993.100000 0.195777
993.200000 0.195491
993.300000 0.195205
993.400000 0.194919
993.500000 0.194632
993.600000 0.194385
993.700000 0.194137
993.800000 0.193888
993.900000 0.193640
994.000000 0.193391
994.100000 0.193082
994.200000 0.192772
994.300000 0.192463
994.400000 0.192155
994.500000 0.191846
994.600000 0.191539
994.700000 0.191231
994.800000 0.190925
994.900000 0.190618
995.000000 0.190312
995.100000 0.190005
995.200000 0.189699
995.300000 0.189393
995.400000 0.189087
995.500000 0.188781
995.600000 0.188476
995.700000 0.188171
995.800000 0.187866
995.900000 0.187562
996.000000 0.187257
996.100000 0.186936
996.200000 0.186614
996.300000 0.186292
996.400000 0.185970
996.500000 0.185648
996.600000 0.185325
996.700000 0.185003
996.800000 0.184680
996.900000 0.184357
997.000000 0.184034
997.100000 0.183718
997.200000 0.183403
997.300000 0.183088
997.400000 0.182773
997.500000 0.182458
997.600000 0.182143
997.700000 0.181829
997.800000 0.181514
997.900000 0.181200
998.000000 0.180886
998.100000 0.180581
998.200000 0.180277
998.300000 0.179973
998.400000 0.179668
998.500000 0.179364
998.600000 0.179060
998.700000 0.178755
998.800000 0.178451
998.900000 0.178147
999.000000 0.177843
999.100000 0.177524
999.200000 0.177204
999.300000 0.176885
999.400000 0.176565
999.500000 0.176244
999.600000 0.175923
999.700000 0.175602
999.800000 0.175280
999.900000 0.174958
1000.000000 0.174635
1000.100000 0.174372
1000.200000 0.174108
1000.300000 0.173844
1000.400000 0.173579
1000.500000 0.173314
1000.600000 0.172979
1000.700000 0.172643
1000.800000 0.172307
1000.900000 0.171971
1001.000000 0.171635
1001.100000 0.171259
1001.200000 0.170883
1001.300000 0.170508
1001.400000 0.170133
1001.500000 0.169758
1001.600000 0.169384
1001.700000 0.169009
1001.800000 0.168636
1001.900000 0.168262
1002.000000 0.167888
1002.100000 0.167611
1002.200000 0.167333
1002.300000 0.167056
1002.400000 0.166778
1002.500000 0.166500
1002.600000 0.166289
1002.700000 0.166078
1002.800000 0.165866
1002.900000 0.165654
1003.000000 0.165442
1003.100000 0.165123
1003.200000 0.164805
1003.300000 0.164486
1003.400000 0.164167
1003.500000 0.163849
1003.600000 0.163531
1003.700000 0.163212
1003.800000 0.162894
1003.900000 0.162576
1004.000000 0.162258
1004.100000 0.161955
1004.200000 0.161651
1004.300000 0.161347
1004.400000 0.161043
1004.500000 0.160739
1004.600000 0.160435
1004.700000 0.160130
1004.800000 0.159825
1004.900000 0.159519
1005.000000 0.159214
1005.100000 0.158899
1005.200000 0.158585
1005.300000 0.158270
1005.400000 0.157955
1005.500000 0.157639
1005.600000 0.157323
1005.700000 0.157006
1005.800000 0.156690
1005.900000 0.156373
1006.000000 0.156055
1006.100000 0.155758
1006.200000 0.155460
1006.300000 0.155162
1006.400000 0.154865
1006.500000 0.154567
1006.600000 0.154301
1006.700000 0.154034
1006.800000 0.153767
1006.900000 0.153501
1007.000000 0.153234
1007.100000 0.152915
1007.200000 0.152595
1007.300000 0.152276
1007.400000 0.151957
1007.500000 0.151638
